Wavelength	Transmittance	hex_color	Manufacturer	Name	Filter Number
400	0.038599999999999995	#838383	Omega	"HPOIII - High Performance OIII (503BP12) 2"" Astronomy Filter Bandpass"	XAF-HPOIII200
401	0.03981				
402	0.042859999999999995				
403	0.04883				
404	0.059269999999999996				
405	0.07857				
406	0.11348000000000001				
407	0.18594000000000002				
408	0.35070999999999997				
409	0.6608499999999999				
410	0.81317				
411	0.5606				
412	0.32093000000000005				
413	0.20568				
414	0.15738				
415	0.14159				
416	0.15227000000000002				
417	0.20655				
418	0.37978				
419	0.6983400000000001				
420	0.49016				
421	0.13934				
422	0.04596				
423	0.01944				
424	0.0097				
425	0.0054800000000000005				
426	0.00333				
427	0.00218				
428	0.00154				
429	0.001				
430	0.00078				
431	0.0006				
432	0.00043999999999999996				
433	0.00035999999999999997				
434	0.00026				
435	0.00026				
436	0.00021999999999999998				
437	0.00014000000000000001				
438	0.00014000000000000001				
439	8.999999999999999e-05				
440	0.00012				
441	0.00013				
442	0.0001				
443	5e-05				
444	6e-05				
445	0.0001				
446	7.000000000000001e-05				
447	0.00012				
448	0.00010999999999999999				
449	5e-05				
450	4e-05				
451	4e-05				
452	8e-05				
453	7.000000000000001e-05				
454	8.999999999999999e-05				
455	5e-05				
456	7.000000000000001e-05				
457	7.000000000000001e-05				
458	7.000000000000001e-05				
459	7.000000000000001e-05				
460	7.000000000000001e-05				
461	0.00010999999999999999				
462	8e-05				
463	0.00010999999999999999				
464	4e-05				
465	7.000000000000001e-05				
466	0.00012				
467	8.999999999999999e-05				
468	0.00012				
469	0.00017				
470	0.00018999999999999998				
471	0.00021				
472	0.0002				
473	0.00025				
474	0.00032				
475	0.00031				
476	0.00043999999999999996				
477	0.0005600000000000001				
478	0.00068				
479	0.00089				
480	0.0011				
481	0.0014199999999999998				
482	0.00191				
483	0.00254				
484	0.0035299999999999997				
485	0.00493				
486	0.00718				
487	0.010709999999999999				
488	0.01665				
489	0.026309999999999997				
490	0.04385				
491	0.07678				
492	0.1389				
493	0.25239				
494	0.44270000000000004				
495	0.68018				
496	0.8674				
497	0.9430299999999999				
498	0.95238				
499	0.94613				
500	0.94536				
501	0.94987				
502	0.951				
503	0.9493				
504	0.9457599999999999				
505	0.94788				
506	0.95474				
507	0.94756				
508	0.88275				
509	0.7230500000000001				
510	0.5028199999999999				
511	0.30919				
512	0.18059				
513	0.10624				
514	0.0645				
515	0.04026				
516	0.026230000000000003				
517	0.01782				
518	0.0124				
519	0.0088				
520	0.00649				
521	0.00486				
522	0.00369				
523	0.0028199999999999996				
524	0.00221				
525	0.0018				
526	0.00151				
527	0.00124				
528	0.0010199999999999999				
529	0.0008699999999999999				
530	0.00079				
531	0.00062				
532	0.00055				
533	0.00048				
534	0.00045				
535	0.00037				
536	0.00035000000000000005				
537	0.00034				
538	0.00027				
539	0.00023				
540	0.00025				
541	0.00018999999999999998				
542	0.00021999999999999998				
543	0.00017				
544	0.00017999999999999998				
545	0.00017				
546	0.00015				
547	0.00014000000000000001				
548	0.00016				
549	0.0001				
550	0.00017				
551	0.00017				
552	0.0001				
553	0.00010999999999999999				
554	7.000000000000001e-05				
555	7.000000000000001e-05				
556	5e-05				
557	0.00010999999999999999				
558	0.00010999999999999999				
559	0.00012				
560	7.000000000000001e-05				
561	0.0001				
562	4e-05				
563	0.00010999999999999999				
564	0.00015				
565	0.00014000000000000001				
566	0.0001				
567	0.00014000000000000001				
568	0.00012				
569	8e-05				
570	0.00012				
571	0.00015				
572	8.999999999999999e-05				
573	0.00014000000000000001				
574	0.00013				
575	0.00017				
576	0.00014000000000000001				
577	0.00016				
578	0.0002				
579	0.00015				
580	0.00017999999999999998				
581	0.00018999999999999998				
582	0.00016				
583	0.00021				
584	0.00021999999999999998				
585	0.00028000000000000003				
586	0.00024				
587	0.00028000000000000003				
588	0.00033				
589	0.0003				
590	0.00033				
591	0.00039				
592	0.00043				
593	0.00043999999999999996				
594	0.00049				
595	0.00052				
596	0.00064				
597	0.0007099999999999999				
598	0.00077				
599	0.0008500000000000001				
600	0.0009299999999999999				
601	0.00108				
602	0.0011799999999999998				
603	0.0014099999999999998				
604	0.00158				
605	0.0018599999999999999				
606	0.00213				
607	0.0025				
608	0.00297				
609	0.0035299999999999997				
610	0.0042				
611	0.00508				
612	0.0062				
613	0.00756				
614	0.00947				
615	0.01187				
616	0.0151				
617	0.0196				
618	0.02611				
619	0.03525				
620	0.04884				
621	0.06993				
622	0.10429000000000001				
623	0.16125				
624	0.25843				
625	0.42463999999999996				
626	0.66879				
627	0.8885200000000001				
628	0.91314				
629	0.75737				
630	0.57367				
631	0.44014000000000003				
632	0.35072000000000003				
633	0.29155000000000003				
634	0.25175000000000003				
635	0.22542				
636	0.20821				
637	0.19716999999999998				
638	0.19076				
639	0.18846				
640	0.18948				
641	0.19404				
642	0.20213				
643	0.2138				
644	0.22976				
645	0.24992				
646	0.27667				
647	0.31016				
648	0.35184				
649	0.40474				
650	0.47128				
651	0.55055				
652	0.64409				
653	0.7463500000000001				
654	0.8470399999999999				
655	0.9233100000000001				
656	0.95548				
657	0.9357500000000001				
658	0.87				
659	0.77608				
660	0.67428				
661	0.5777100000000001				
662	0.49195999999999995				
663	0.42067				
664	0.36295				
665	0.31545				
666	0.27683				
667	0.24609999999999999				
668	0.22065				
669	0.19984000000000002				
670	0.18228000000000003				
671	0.16809000000000002				
672	0.15593				
673	0.14589				
674	0.1373				
675	0.13028				
676	0.12417				
677	0.11935000000000001				
678	0.11496				
679	0.11156				
680	0.10875				
681	0.10664				
682	0.10488				
683	0.10353				
684	0.10294				
685	0.10260999999999999				
686	0.10269				
687	0.10298				
688	0.10375				
689	0.105				
690	0.10651				
691	0.10842				
692	0.11064				
693	0.11308				
694	0.11643				
695	0.11983				
696	0.12364000000000001				
697	0.12814				
698	0.13295				
699	0.13865				
700	0.14458000000000001				
701	0.15106999999999998				
702	0.15841				
703	0.16646				
704	0.17504				
705	0.18445				
706	0.19511				
707	0.20632				
708	0.21879				
709	0.23244				
710	0.24678				
711	0.26255				
712	0.27984000000000003				
713	0.29797999999999997				
714	0.31787				
715	0.33905				
716	0.36132				
717	0.38533				
718	0.41039000000000003				
719	0.43759				
720	0.46556				
721	0.49387000000000003				
722	0.52379				
723	0.55295				
724	0.58394				
725	0.61458				
726	0.6448999999999999				
727	0.67569				
728	0.70404				
729	0.73218				
730	0.7585				
731	0.7830800000000001				
732	0.8058299999999999				
733	0.82592				
734	0.84601				
735	0.8621800000000001				
736	0.87729				
737	0.89058				
738	0.9016200000000001				
739	0.9118				
740	0.91986				
741	0.9265300000000001				
742	0.93324				
743	0.9370999999999999				
744	0.94131				
745	0.9449200000000001				
746	0.94687				
747	0.9479900000000001				
748	0.94979				
749	0.95109				
750	0.95111				
