Wavelength	Transmittance	hex_color	Manufacturer	Name	Filter Number
475	2e-05	#838383	Omega	483.5BP2 Bandpass	W2885
476	0.0				
477	2e-05				
478	0.0				
479	0.0				
480	0.00023				
481	0.0028399999999999996				
482	0.28564				
483	0.81482				
484	0.6870499999999999				
485	0.00553				
486	0.00026				
487	0.0				
488	2e-05				
489	3e-05				
490	1e-05				
491	0.0				
492	5e-05				
493	0.0				
494	0.0				
495	0.0				
