Wavelength	Transmittance	hex_color	Manufacturer	Name	Filter Number
800	0.0	#838383	Omega	845DRLP Dichroic	W5082
801	0.0				
802	0.00111				
803	0.00184				
804	0.0				
805	0.0				
806	0.0				
807	0.0				
808	0.00018999999999999998				
809	0.0				
810	0.0012900000000000001				
811	0.00018999999999999998				
812	0.0				
813	0.0				
814	0.0				
815	0.00292				
816	0.0				
817	0.00179				
818	0.0				
819	0.00172				
820	0.00108				
821	0.0018599999999999999				
822	0.00188				
823	0.00196				
824	0.0023799999999999997				
825	0.0019500000000000001				
826	0.0013900000000000002				
827	0.00314				
828	0.0030299999999999997				
829	0.00376				
830	0.006979999999999999				
831	0.007890000000000001				
832	0.0139				
833	0.01913				
834	0.02373				
835	0.030139999999999997				
836	0.03982				
837	0.05432000000000001				
838	0.07177				
839	0.10920999999999999				
840	0.15117				
841	0.21364999999999998				
842	0.30142				
843	0.40271				
844	0.54247				
845	0.6589700000000001				
846	0.7777200000000001				
847	0.87968				
848	0.93682				
849	0.9756900000000001				
850	0.99449				
851	0.99125				
852	0.99469				
853	0.99574				
854	0.9994799999999999				
855	1.00209				
856	0.9946200000000001				
857	0.9919899999999999				
858	0.99997				
859	1.00223				
860	1.00432				
861	1.00394				
862	0.9982599999999999				
863	0.99639				
864	0.99422				
865	0.9937999999999999				
866	0.9958				
867	0.9954900000000001				
868	0.9970699999999999				
869	0.98942				
870	0.99622				
871	0.99645				
872	0.99484				
873	0.99595				
874	1.00095				
875	0.9987900000000001				
876	0.9958499999999999				
877	0.99535				
878	1.00286				
879	0.9999800000000001				
880	0.9994799999999999				
881	0.9976900000000001				
882	0.99586				
883	0.99469				
884	0.9968899999999999				
885	0.9929399999999999				
886	0.99539				
887	0.99555				
888	0.99553				
889	0.9968300000000001				
890	0.99883				
891	0.9992				
892	1.00163				
893	0.99988				
894	1.00012				
895	0.99897				
896	0.99824				
897	0.99919				
898	0.99562				
899	0.9978400000000001				
900	0.99764				
901	0.9989				
902	0.99395				
903	0.99588				
904	0.99181				
905	0.99237				
906	0.9896699999999999				
907	0.99141				
908	0.99327				
909	0.99088				
910	0.9908				
911	0.99564				
912	0.99572				
913	0.99165				
914	0.99738				
915	0.9957299999999999				
916	0.99649				
917	0.99722				
918	0.9973000000000001				
919	0.9956699999999999				
920	1.00028				
921	0.9965999999999999				
922	0.99504				
923	0.9954999999999999				
924	0.99637				
925	0.99238				
926	0.99198				
927	0.99607				
928	0.991				
929	0.9956499999999999				
930	0.99007				
931	0.99239				
932	0.99816				
933	0.9947199999999999				
934	0.9929600000000001				
935	0.99883				
936	0.9958899999999999				
937	0.9946299999999999				
938	0.9965900000000001				
939	0.99471				
940	0.99712				
941	0.9975700000000001				
942	0.99681				
943	0.9994799999999999				
944	1.00215				
945	0.99469				
946	0.99666				
947	0.99339				
948	0.9940300000000001				
949	0.9978				
950	0.9948				
